TITLE	
DATA TYPE	
ORIGIN	JASCO
OWNER	
DATE	13/05/23
TIME	15:22:37
SPECTROMETER/DATA SYSTEM	JASCO Corp., V-570, Rev. 1.00
RESOLUTION	
DELTAX	-1
XUNITS	NANOMETERS
YUNITS	ABSORBANCE
FIRSTX	800.0000
LASTX	400.0000
NPOINTS	401
FIRSTY	0.03178
MAXY	1.11671
MINY	0.03178
XYDATA
800.0000	0.03178
799.0000	0.03181
798.0000	0.03184
797.0000	0.03186
796.0000	0.03186
795.0000	0.03189
794.0000	0.03192
793.0000	0.03198
792.0000	0.032
791.0000	0.03204
790.0000	0.03208
789.0000	0.03212
788.0000	0.03211
787.0000	0.0321
786.0000	0.03212
785.0000	0.03219
784.0000	0.03219
783.0000	0.03227
782.0000	0.03227
781.0000	0.03233
780.0000	0.03236
779.0000	0.03243
778.0000	0.03246
777.0000	0.03249
776.0000	0.03251
775.0000	0.03253
774.0000	0.03252
773.0000	0.03254
772.0000	0.03257
771.0000	0.03261
770.0000	0.03264
769.0000	0.03268
768.0000	0.03275
767.0000	0.03278
766.0000	0.03279
765.0000	0.03281
764.0000	0.03284
763.0000	0.03289
762.0000	0.03293
761.0000	0.03299
760.0000	0.03299
759.0000	0.03304
758.0000	0.03306
757.0000	0.03313
756.0000	0.03323
755.0000	0.03327
754.0000	0.0333
753.0000	0.0333
752.0000	0.03336
751.0000	0.03342
750.0000	0.03346
749.0000	0.0335
748.0000	0.03356
747.0000	0.0336
746.0000	0.03364
745.0000	0.03368
744.0000	0.03373
743.0000	0.03378
742.0000	0.03385
741.0000	0.03392
740.0000	0.03424
739.0000	0.03441
738.0000	0.03449
737.0000	0.03454
736.0000	0.0346
735.0000	0.03463
734.0000	0.0347
733.0000	0.03473
732.0000	0.03482
731.0000	0.03486
730.0000	0.03496
729.0000	0.03505
728.0000	0.03518
727.0000	0.03523
726.0000	0.03531
725.0000	0.03538
724.0000	0.03549
723.0000	0.03551
722.0000	0.03557
721.0000	0.03567
720.0000	0.03581
719.0000	0.03593
718.0000	0.03603
717.0000	0.03613
716.0000	0.03626
715.0000	0.03634
714.0000	0.03645
713.0000	0.03657
712.0000	0.03675
711.0000	0.0369
710.0000	0.03708
709.0000	0.03727
708.0000	0.03746
707.0000	0.03769
706.0000	0.03792
705.0000	0.03814
704.0000	0.03837
703.0000	0.03859
702.0000	0.03887
701.0000	0.03916
700.0000	0.03941
699.0000	0.03965
698.0000	0.03987
697.0000	0.04008
696.0000	0.04024
695.0000	0.04032
694.0000	0.04035
693.0000	0.04025
692.0000	0.04008
691.0000	0.03978
690.0000	0.03945
689.0000	0.03905
688.0000	0.03861
687.0000	0.03817
686.0000	0.03772
685.0000	0.03737
684.0000	0.03706
683.0000	0.0369
682.0000	0.03684
681.0000	0.03693
680.0000	0.03712
679.0000	0.03737
678.0000	0.03766
677.0000	0.03793
676.0000	0.03818
675.0000	0.0384
674.0000	0.0386
673.0000	0.03875
672.0000	0.03885
671.0000	0.03892
670.0000	0.03902
669.0000	0.03907
668.0000	0.03916
667.0000	0.03922
666.0000	0.03927
665.0000	0.03933
664.0000	0.03941
663.0000	0.03946
662.0000	0.03956
661.0000	0.03964
660.0000	0.03971
659.0000	0.0398
658.0000	0.03989
657.0000	0.04001
656.0000	0.04007
655.0000	0.04014
654.0000	0.04021
653.0000	0.04025
652.0000	0.04034
651.0000	0.04041
650.0000	0.0405
649.0000	0.04058
648.0000	0.04068
647.0000	0.04076
646.0000	0.04086
645.0000	0.04099
644.0000	0.04108
643.0000	0.04116
642.0000	0.0412
641.0000	0.0413
640.0000	0.04141
639.0000	0.04154
638.0000	0.04162
637.0000	0.04173
636.0000	0.04187
635.0000	0.04207
634.0000	0.04222
633.0000	0.04236
632.0000	0.04253
631.0000	0.0427
630.0000	0.04286
629.0000	0.04303
628.0000	0.04324
627.0000	0.04348
626.0000	0.04376
625.0000	0.04405
624.0000	0.04429
623.0000	0.04459
622.0000	0.04492
621.0000	0.04531
620.0000	0.04569
619.0000	0.04606
618.0000	0.04653
617.0000	0.04704
616.0000	0.04764
615.0000	0.04828
614.0000	0.04898
613.0000	0.04971
612.0000	0.05058
611.0000	0.05153
610.0000	0.0526
609.0000	0.05378
608.0000	0.05507
607.0000	0.05647
606.0000	0.05806
605.0000	0.05981
604.0000	0.06175
603.0000	0.06387
602.0000	0.06624
601.0000	0.06887
600.0000	0.07182
599.0000	0.07506
598.0000	0.07866
597.0000	0.08269
596.0000	0.0871
595.0000	0.09205
594.0000	0.09748
593.0000	0.10348
592.0000	0.11003
591.0000	0.11723
590.0000	0.12507
589.0000	0.13365
588.0000	0.14299
587.0000	0.1531
586.0000	0.16406
585.0000	0.17578
584.0000	0.18829
583.0000	0.2016
582.0000	0.21564
581.0000	0.23043
580.0000	0.24593
579.0000	0.26201
578.0000	0.27853
577.0000	0.2954
576.0000	0.31265
575.0000	0.33007
574.0000	0.34751
573.0000	0.36479
572.0000	0.38173
571.0000	0.39823
570.0000	0.41402
569.0000	0.42892
568.0000	0.44285
567.0000	0.4558
566.0000	0.46749
565.0000	0.47788
564.0000	0.48677
563.0000	0.49427
562.0000	0.50032
561.0000	0.50493
560.0000	0.50806
559.0000	0.50983
558.0000	0.51028
557.0000	0.50949
556.0000	0.5076
555.0000	0.50466
554.0000	0.50086
553.0000	0.49621
552.0000	0.49092
551.0000	0.48508
550.0000	0.47877
549.0000	0.47208
548.0000	0.46507
547.0000	0.45787
546.0000	0.45052
545.0000	0.44317
544.0000	0.43584
543.0000	0.42864
542.0000	0.42159
541.0000	0.41476
540.0000	0.40815
539.0000	0.40189
538.0000	0.39599
537.0000	0.39048
536.0000	0.38539
535.0000	0.38075
534.0000	0.37659
533.0000	0.37288
532.0000	0.36966
531.0000	0.36691
530.0000	0.36467
529.0000	0.36288
528.0000	0.36161
527.0000	0.36075
526.0000	0.36044
525.0000	0.36059
524.0000	0.36124
523.0000	0.36234
522.0000	0.36393
521.0000	0.36597
520.0000	0.36962
519.0000	0.37218
518.0000	0.37529
517.0000	0.37908
516.0000	0.38323
515.0000	0.38777
514.0000	0.39275
513.0000	0.39808
512.0000	0.40381
511.0000	0.40982
510.0000	0.41615
509.0000	0.42271
508.0000	0.42956
507.0000	0.43669
506.0000	0.44408
505.0000	0.45165
504.0000	0.45937
503.0000	0.4672
502.0000	0.47522
501.0000	0.48332
500.0000	0.49156
499.0000	0.49988
498.0000	0.50829
497.0000	0.51681
496.0000	0.52526
495.0000	0.53376
494.0000	0.54224
493.0000	0.55073
492.0000	0.55921
491.0000	0.56764
490.0000	0.57602
489.0000	0.58435
488.0000	0.59261
487.0000	0.60077
486.0000	0.60887
485.0000	0.61689
484.0000	0.62479
483.0000	0.63255
482.0000	0.64012
481.0000	0.6476
480.0000	0.65498
479.0000	0.66222
478.0000	0.66925
477.0000	0.67609
476.0000	0.68276
475.0000	0.68933
474.0000	0.69571
473.0000	0.70189
472.0000	0.70785
471.0000	0.71365
470.0000	0.7193
469.0000	0.72476
468.0000	0.73006
467.0000	0.7352
466.0000	0.74021
465.0000	0.74506
464.0000	0.74976
463.0000	0.75429
462.0000	0.75867
461.0000	0.76292
460.0000	0.76706
459.0000	0.77111
458.0000	0.77505
457.0000	0.77887
456.0000	0.78262
455.0000	0.7863
454.0000	0.78999
453.0000	0.79365
452.0000	0.79726
451.0000	0.80088
450.0000	0.80455
449.0000	0.80828
448.0000	0.81208
447.0000	0.81604
446.0000	0.82007
445.0000	0.82429
444.0000	0.82859
443.0000	0.83304
442.0000	0.83764
441.0000	0.84243
440.0000	0.84741
439.0000	0.85259
438.0000	0.858
437.0000	0.86352
436.0000	0.8693
435.0000	0.87524
434.0000	0.88137
433.0000	0.88763
432.0000	0.89403
431.0000	0.90055
430.0000	0.90701
429.0000	0.91339
428.0000	0.91964
427.0000	0.92582
426.0000	0.93197
425.0000	0.93812
424.0000	0.94426
423.0000	0.95057
422.0000	0.95695
421.0000	0.96354
420.0000	0.97491
419.0000	0.98181
418.0000	0.98879
417.0000	0.99593
416.0000	1.0031
415.0000	1.01033
414.0000	1.01746
413.0000	1.02466
412.0000	1.03175
411.0000	1.03895
410.0000	1.04596
409.0000	1.05303
408.0000	1.06003
407.0000	1.06706
406.0000	1.07407
405.0000	1.08113
404.0000	1.08818
403.0000	1.09526
402.0000	1.10237
401.0000	1.10955
400.0000	1.11671
